Temperature (C) Pressure (bar) Density (l, mol/l) Volume (l, l/mol) Internal Energy (l, kJ/kg) Enthalpy (l, kJ/kg) Entropy (l, J/g*K) Cv (l, J/g*K) Cp (l, J/g*K) Sound Spd. (l, m/s) Joule-Thomson (l, K/bar) Viscosity (l, uPa*s) Therm. Cond. (l, W/m*K) Surf. Tension (l, N/m) Density (v, mol/l) Volume (v, l/mol) Internal Energy (v, kJ/kg) Enthalpy (v, kJ/kg) Entropy (v, J/g*K) Cv (v, J/g*K) Cp (v, J/g*K) Sound Spd. (v, m/s) Joule-Thomson (v, K/bar) Viscosity (v, uPa*s) Therm. Cond. (v, W/m*K) 
